RBR XR-620  6.60 018573 (Windows: 6.13 - Minimum required: 6.13)
Host time     18/06/22 09:41:55
Logger time   18/06/22 09:42:03
Logging start 18/04/30 08:24:20
Logging end   18/06/15 15:00:00
Sample period          00:01:00
Number of channels =  3, number of samples =  66636, mode: Logging Complete
N03%9.4f
Calibration  1: -0.002382818000000
                154.906994200000010
                0.000000000000000
                0.000000000000000 mS/cm
Calibration  2: 0.003426915600263
                -0.000257234520228
                0.000002313140325
                -0.000000071195509 Degrees_C
Calibration  3: 8.129605369038000
                930.138389642962010
                20.635332533391001
                1.799385691527000 deciBars
Correction to conductivity: 1.4000000e-005 -2.0000000e-004 1.4900000e+001 7.0000000e-007
Memory type: 6 AT45DB642D_LP
Averaging: NONE
Logger start:Now 

     Cond      Temp      Pres  Salinity  DensAnom 
  -0.0024   17.4700    9.7862 -1000.0000 -1000.0000 
  -0.0025   17.5868    9.7807 -1000.0000 -1000.0000 
  -0.0006   17.6839    9.7830 -1000.0000 -1000.0000 
  -0.0017   17.7410    9.7842 -1000.0000 -1000.0000 
  -0.0018   17.7795    9.7880 -1000.0000 -1000.0000 
   0.0003   17.8242    9.7845    0.0091 -1000.0000 
  -0.0020   17.2533    9.7801 -1000.0000 -1000.0000 
  -0.0005   18.2788    9.7843 -1000.0000 -1000.0000 
  -0.0015   18.0713    9.7819 -1000.0000 -1000.0000 
  -0.0024   17.8372    9.7890 -1000.0000 -1000.0000 
  -0.0027   18.4748    9.7972 -1000.0000 -1000.0000 
  34.9571   13.1398   10.2585   29.2285   21.9004 
  34.9099   13.1436   10.1501   29.1819   21.8632 
  34.8407   13.1357   10.1857   29.1238   21.8199 
  34.8721   13.1288   10.1680   29.1583   21.8478 
  34.8716   13.1343   10.1531   29.1535   21.8430 
  34.8385   13.1358   10.1533   29.1217   21.8182 
  34.8357   13.1377   10.1481   29.1176   21.8146 
  34.8285   13.1407   10.1461   29.1087   21.8071 
  34.8206   13.1461   10.1500   29.0972   21.7973 
  34.8143   13.1564   10.1516   29.0835   21.7847 
  34.8123   13.1506   10.1516   29.0861   21.7878 
  34.8060   13.1528   10.1531   29.0786   21.7816 
  34.8049   13.1610   10.1533   29.0712   21.7743 
  34.8031   13.1614   10.1618   29.0693   21.7728 
  34.7989   13.1650   10.1594   29.0627   21.7670 
  34.7939   13.1676   10.1552   29.0561   21.7614 
  34.7905   13.1726   10.1618   29.0491   21.7551 
  34.7900   13.1764   10.1608   29.0458   21.7518 
  34.7860   13.1786   10.1666   29.0404   21.7473 
  34.7814   13.1833   10.1659   29.0325   21.7402 
  34.7754   13.1851   10.1715   29.0255   21.7345 
  34.7741   13.1900   10.1714   29.0206   21.7298 
  34.7702   13.1921   10.1693   29.0154   21.7254 
  34.7673   13.1945   10.1737   29.0109   21.7214 
  34.7637   13.1993   10.1739   29.0039   21.7151 
  34.7596   13.2035   10.1770   28.9969   21.7089 
  34.7561   13.2069   10.1739   28.9911   21.7038 
  34.7517   13.2097   10.1752   28.9849   21.6985 
  34.7473   13.2124   10.1763   28.9788   21.6932 
  34.7383   13.2147   10.1763   28.9686   21.6849 
  34.7353   13.2170   10.1796   28.9642   21.6811 
  34.7287   13.2190   10.1779   28.9565   21.6747 
  34.7225   13.2217   10.1819   28.9488   21.6683 
  34.7165   13.2239   10.1795   28.9416   21.6623 
  34.7111   13.2269   10.1803   28.9343   21.6561 
  34.7069   13.2288   10.1793   28.9289   21.6515 
  34.7008   13.2304   10.1776   28.9221   21.6460 
  34.6914   13.2313   10.1777   28.9128   21.6386 
  34.6805   13.2310   10.1824   28.9029   21.6311 
  34.6717   13.2311   10.1785   28.8947   21.6247 
  34.6638   13.2304   10.1778   28.8879   21.6196 
  34.6568   13.2306   10.1804   28.8813   21.6145 
  34.6464   13.2302   10.1766   28.8720   21.6073 
  34.6353   13.2289   10.1830   28.8627   21.6004 
  34.6229   13.2276   10.1829   28.8522   21.5926 
  34.6136   13.2257   10.1826   28.8451   21.5875 
  34.6027   13.2232   10.1813   28.8369   21.5816 
  34.5931   13.2222   10.1800   28.8288   21.5755 
  34.5860   13.2198   10.1834   28.8240   21.5723 
  34.5723   13.2159   10.1816   28.8144   21.5656 
  34.5658   13.2162   10.1828   28.8080   21.5606 
  34.5555   13.2119   10.1817   28.8019   21.5567 
  34.5478   13.2098   10.1817   28.7963   21.5528 
  34.5395   13.2074   10.1788   28.7904   21.5487 
  34.5291   13.2024   10.1823   28.7846   21.5452 
  34.5199   13.2001   10.1823   28.7779   21.5404 
  34.5065   13.1983   10.1808   28.7668   21.5322 
  34.4938   13.1940   10.1821   28.7584   21.5265 
  34.4835   13.1908   10.1819   28.7513   21.5217 
  34.4696   13.1867   10.1811   28.7415   21.5149 
  34.4591   13.1829   10.1831   28.7347   21.5103 
  34.4500   13.1795   10.1790   28.7288   21.5065 
  34.4382   13.1738   10.1834   28.7223   21.5025 
  34.4289   13.1715   10.1819   28.7153   21.4976 
  34.4158   13.1671   10.1810   28.7066   21.4917 
  34.4058   13.1613   10.1793   28.7017   21.4890 
  34.3930   13.1582   10.1832   28.6923   21.4823 
  34.3802   13.1534   10.1847   28.6840   21.4768 
  34.3773   13.1482   10.1829   28.6852   21.4788 
  34.3693   13.1436   10.1867   28.6812   21.4766 
  34.3610   13.1375   10.1772   28.6782   21.4753 
  34.3561   13.1353   10.1844   28.6753   21.4735 
  34.3439   13.1290   10.1814   28.6688   21.4697 
  34.3325   13.1236   10.1833   28.6623   21.4657 
  34.3197   13.1180   10.1814   28.6547   21.4609 
  34.3069   13.1144   10.1829   28.6457   21.4546 
  34.2958   13.1093   10.1821   28.6391   21.4505 
  34.2881   13.1047   10.1877   28.6355   21.4486 
  34.2768   13.0992   10.1840   28.6292   21.4448 
  34.2678   13.0940   10.1821   28.6248   21.4424 
  34.2557   13.0891   10.1887   28.6173   21.4375 
  34.2448   13.0816   10.1799   28.6129   21.4354 
  34.2330   13.0775   10.1864   28.6049   21.4301 
  34.2223   13.0619   10.1851   28.6068   21.4345 
  34.2161   13.0659   10.1856   28.5980   21.4270 
  34.2016   13.0599   10.1843   28.5892   21.4213 
  34.1890   13.0550   10.1849   28.5811   21.4160 
  34.1809   13.0489   10.1837   28.5783   21.4149 
  34.1662   13.0399   10.1873   28.5714   21.4114 
  34.1526   13.0348   10.1880   28.5626   21.4055 
  34.1420   13.0294   10.1859   28.5569   21.4021 
  34.1347   13.0255   10.1890   28.5531   21.3999 
  34.1201   13.0175   10.1873   28.5456   21.3956 
  34.1277   13.0118   10.1846   28.5569   21.4054 
  34.1159   13.0056   10.1856   28.5505   21.4017 
  34.1005   12.9991   10.1891   28.5411   21.3956 
  34.0844   12.9809   10.1885   28.5399   21.3982 
  34.0787   12.9837   10.1899   28.5326   21.3920 
  34.0738   12.9795   10.1923   28.5312   21.3917 
  34.0680   12.9742   10.1856   28.5297   21.3915 
  34.0560   12.9657   10.1861   28.5251   21.3895 
  34.0389   12.9599   10.1903   28.5135   21.3817 
  34.0235   12.9539   10.1909   28.5038   21.3753 
  34.0093   12.9461   10.1870   28.4965   21.3711 
  33.9968   12.9409   10.1868   28.4887   21.3661 
  33.9878   12.9347   10.1875   28.4851   21.3644 
  33.9780   12.9271   10.1885   28.4817   21.3633 
  33.9658   12.9219   10.1851   28.4742   21.3584 
  33.9529   12.9134   10.1869   28.4686   21.3557 
  33.9464   12.9057   10.1865   28.4684   21.3570 
  33.9299   12.8912   10.1905   28.4640   21.3563 
  33.9226   12.8934   10.1930   28.4555   21.3494 
  33.9372   12.8866   10.1863   28.4741   21.3650 
  33.9368   12.8804   10.1889   28.4785   21.3695 
  33.9273   12.8722   10.1891   28.4758   21.3690 
  33.9129   12.8631   10.1902   28.4693   21.3657 
  33.9038   12.8564   10.1888   28.4658   21.3642 
  33.8921   12.8443   10.1887   28.4640   21.3651 
  33.8822   12.8427   10.1896   28.4560   21.3592 
  33.8700   12.8345   10.1910   28.4508   21.3567 
  33.8608   12.8295   10.1887   28.4461   21.3540 
  33.8555   12.8212   10.1909   28.4474   21.3565 
  33.8488   12.8114   10.1912   28.4485   21.3592 
  33.8354   12.8080   10.1912   28.4386   21.3522 
  33.8195   12.7984   10.1919   28.4310   21.3481 
  33.8078   12.7926   10.1913   28.4244   21.3441 
  33.7964   12.7867   10.1963   28.4182   21.3404 
  33.7841   12.7771   10.1905   28.4140   21.3390 
  33.7718   12.7699   10.1931   28.4080   21.3356 
  33.7621   12.7626   10.1919   28.4044   21.3342 
  33.7489   12.7551   10.1909   28.3978   21.3305 
  33.7404   12.7495   10.1950   28.3940   21.3286 
  33.7348   12.7404   10.1930   28.3957   21.3316 
  33.7221   12.7362   10.1967   28.3870   21.3257 
  33.7051   12.7123   10.1936   28.3890   21.3317 
  33.7047   12.7186   10.1929   28.3840   21.3266 
  33.6935   12.7112   10.1962   28.3791   21.3242 
  33.6826   12.7037   10.1935   28.3746   21.3221 
  33.6731   12.6940   10.1906   28.3729   21.3226 
  33.6739   12.6888   10.1984   28.3777   21.3272 
  33.6588   12.6815   10.1935   28.3690   21.3219 
  33.6490   12.6737   10.1962   28.3657   21.3208 
  33.6332   12.6640   10.1953   28.3583   21.3168 
  33.6231   12.6556   10.1963   28.3552   21.3160 
  33.6124   12.6505   10.1980   28.3490   21.3121 
  33.6000   12.6403   10.1987   28.3450   21.3109 
  33.5885   12.6301   10.1974   28.3419   21.3104 
  33.5743   12.6256   10.2022   28.3321   21.3036 
  33.5786   12.6178   10.2022   28.3420   21.3127 
  33.5805   12.6084   10.1969   28.3508   21.3212 
  33.5680   12.6034   10.2034   28.3429   21.3161 
  33.6302   12.5928   10.2003   28.4090   21.3692 
  33.6065   12.5812   10.1986   28.3956   21.3609 
  33.5941   12.5789   10.1969   28.3857   21.3537 
  33.5835   12.5702   10.1991   28.3823   21.3527 
  33.5716   12.5632   10.2003   28.3765   21.3494 
  33.5635   12.5542   10.2010   28.3756   21.3505 
  33.5436   12.5444   10.2005   28.3645   21.3436 
  33.5363   12.5393   10.1986   28.3614   21.3422 
  33.5282   12.5285   10.1980   28.3619   21.3445 
  33.5120   12.5216   10.1979   28.3519   21.3381 
  33.5069   12.5141   10.1958   28.3529   21.3402 
  33.5006   12.5036   10.2029   28.3548   21.3436 
  33.4902   12.4990   10.1985   28.3486   21.3396 
  33.4881   12.4915   10.1979   28.3522   21.3438 
  33.4748   12.4835   10.1977   28.3458   21.3403 
  33.4612   12.4696   10.1993   28.3435   21.3411 
  33.4537   12.4649   10.2000   28.3401   21.3393 
  33.4438   12.4563   10.1984   28.3372   21.3387 
  33.4346   12.4481   10.1978   28.3347   21.3382 
  33.4288   12.4402   10.2043   28.3352   21.3400 
  33.4115   12.4294   10.2008   28.3272   21.3358 
  33.4055   12.4220   10.2009   28.3270   21.3370 
  33.3962   12.4134   10.2031   28.3248   21.3369 
  33.3878   12.4073   10.1988   28.3215   21.3354 
  33.3904   12.3981   10.2019   28.3309   21.3444 
  33.3786   12.3884   10.2099   28.3272   21.3433 
  33.3651   12.3817   10.2058   28.3195   21.3385 
  33.3581   12.3745   10.2010   28.3184   21.3390 
  33.3447   12.3611   10.2013   28.3159   21.3394 
  33.3486   12.3554   10.2021   28.3238   21.3466 
  33.3354   12.3483   10.2055   28.3168   21.3425 
  33.3301   12.3402   10.2047   28.3178   21.3448 
  33.3199   12.3286   10.2010   28.3169   21.3462 
  33.3093   12.3223   10.2052   28.3118   21.3433 
  33.2991   12.3128   10.2072   28.3094   21.3432 
  33.2895   12.3047   10.2026   28.3064   21.3424 
  33.2929   12.2964   10.2069   28.3160   21.3513 
  33.2862   12.2847   10.2049   28.3184   21.3552 
  33.2788   12.2790   10.2043   28.3158   21.3542 
  33.2626   12.2719   10.2042   28.3058   21.3478 
  33.2480   12.2592   10.2020   28.3016   21.3468 
  33.2411   12.2461   10.2048   28.3050   21.3518 
  33.2353   12.2444   10.2056   28.3009   21.3489 
  33.2148   12.2356   10.2077   28.2882   21.3407 
  33.2084   12.2279   10.2059   28.2879   21.3419 
  33.1929   12.2103   10.2065   28.2866   21.3440 
  33.1887   12.2096   10.2072   28.2831   21.3415 
  33.1782   12.2014   10.2119   28.2794   21.3401 
  33.1678   12.1916   10.2066   28.2771   21.3400 
  33.1612   12.1822   10.2059   28.2778   21.3423 
  33.1477   12.1722   10.2039   28.2727   21.3401 
  33.1218   12.1649   10.2074   28.2537   21.3267 
  33.1265   12.1575   10.2063   28.2638   21.3358 
  33.1181   12.1510   10.2067   28.2608   21.3347 
  33.1083   12.1395   10.2058   28.2602   21.3363 
  33.1032   12.1300   10.2093   28.2625   21.3398 
  33.0909   12.1224   10.2038   28.2566   21.3366 
  33.0812   12.1147   10.2083   28.2533   21.3354 
  33.0696   12.1068   10.2060   28.2483   21.3329 
  33.0725   12.0971   10.2114   28.2584   21.3425 
  33.0634   12.0879   10.2057   28.2567   21.3428 
  33.0554   12.0791   10.2034   28.2558   21.3437 
  33.0502   12.0712   10.2051   28.2568   21.3459 
  33.0359   12.0662   10.2100   28.2470   21.3392 
  33.0273   12.0569   10.2108   28.2459   21.3400 
  33.0175   12.0483   10.2124   28.2431   21.3394 
  33.0087   12.0386   10.2070   28.2421   21.3403 
  33.0024   12.0290   10.2063   28.2434   21.3430 
  32.9897   12.0223   10.2106   28.2365   21.3389 
  32.9844   12.0118   10.2077   28.2393   21.3429 
  32.9865   12.0039   10.2089   28.2473   21.3505 
  32.9896   11.9951   10.2075   28.2569   21.3595 
  32.9790   11.9876   10.2031   28.2526   21.3574 
  32.9637   11.9778   10.2143   28.2455   21.3538 
  32.9534   11.9701   10.2074   28.2415   21.3520 
  32.9528   11.9657   10.2091   28.2442   21.3549 
  32.9411   11.9562   10.2165   28.2403   21.3536 
  32.9383   11.9517   10.2118   28.2411   21.3550 
  32.9252   11.9394   10.2122   28.2380   21.3547 
  32.9217   11.9400   10.2134   28.2342   21.3517 
  32.9057   11.9338   10.2090   28.2237   21.3446 
  32.8961   11.9269   10.2130   28.2198   21.3429 
  32.9100   11.9220   10.2131   28.2367   21.3568 
  32.9091   11.9144   10.2116   28.2416   21.3620 
  32.8978   11.9105   10.2141   28.2338   21.3566 
  32.8942   11.9063   10.2083   28.2335   21.3571 
  32.8847   11.8996   10.2104   28.2297   21.3553 
  32.8788   11.8951   10.2118   28.2274   21.3544 
  32.8699   11.8909   10.2114   28.2221   21.3510 
  32.8676   11.8848   10.2135   28.2246   21.3540 
  32.8573   11.8795   10.2124   28.2188   21.3504 
  32.8625   11.8758   10.2187   28.2265   21.3571 
  32.8563   11.8700   10.2163   28.2251   21.3570 
  32.8506   11.8648   10.2051   28.2236   21.3567 
  32.8390   11.8601   10.2159   28.2161   21.3518 
  32.8404   11.8573   10.2151   28.2196   21.3549 
  32.8296   11.8526   10.2144   28.2129   21.3506 
  32.8306   11.8481   10.2209   28.2172   21.3548 
  32.8045   11.8438   10.2174   28.1956   21.3388 
  32.8189   11.8385   10.2172   28.2134   21.3535 
  32.8096   11.8337   10.2183   28.2081   21.3502 
  32.7993   11.8266   10.2144   28.2037   21.3481 
  32.7964   11.8235   10.2117   28.2032   21.3482 
  32.7794   11.8136   10.2145   28.1947   21.3433 
  32.7952   11.8084   10.2157   28.2136   21.3589 
  32.7858   11.8005   10.2229   28.2106   21.3580 
  32.7704   11.7933   10.2178   28.2015   21.3522 
  32.7731   11.7895   10.2195   28.2069   21.3570 
  32.7645   11.7832   10.2158   28.2034   21.3554 
  32.7555   11.7731   10.2205   28.2024   21.3565 
  32.7520   11.7676   10.2166   28.2034   21.3582 
  32.7407   11.7620   10.2168   28.1968   21.3540 
  32.7314   11.7554   10.2188   28.1930   21.3522 
  32.7291   11.7483   10.2177   28.1961   21.3559 
  32.7252   11.7412   10.2166   28.1979   21.3585 
  32.7191   11.7339   10.2177   28.1975   21.3595 
  32.7228   11.7292   10.2149   28.2045   21.3658 
  32.7144   11.7202   10.2133   28.2034   21.3664 
  32.6980   11.7109   10.2180   28.1948   21.3614 
  32.6983   11.7052   10.2185   28.1994   21.3660 
  32.6885   11.6963   10.2193   28.1968   21.3655 
  32.6844   11.6905   10.2185   28.1973   21.3669 
  32.6748   11.6826   10.2218   28.1941   21.3658 
  32.6628   11.6736   10.2207   28.1894   21.3638 
  32.6620   11.6676   10.2180   28.1934   21.3679 
  32.6581   11.6623   10.2198   28.1936   21.3690 
  32.6362   11.6523   10.2225   28.1803   21.3604 
  32.6358   11.6454   10.2190   28.1851   21.3653 
  32.6342   11.6393   10.2188   28.1882   21.3688 
  32.6277   11.6298   10.2176   28.1892   21.3712 
  32.6194   11.6230   10.2171   28.1864   21.3702 
  32.6132   11.6153   10.2169   28.1863   21.3715 
  32.6007   11.6066   10.2177   28.1811   21.3689 
  32.5929   11.5972   10.2210   28.1807   21.3702 
  32.5825   11.5922   10.2215   28.1745   21.3663 
  32.5763   11.5764   10.2202   28.1805   21.3737 
  32.5726   11.5754   10.2151   28.1778   21.3718 
  32.5642   11.5672   10.2186   28.1760   21.3718 
  32.5493   11.5581   10.2187   28.1686   21.3677 
  32.5482   11.5532   10.2215   28.1713   21.3706 
  32.5389   11.5422   10.2186   28.1708   21.3721 
  32.5402   11.5347   10.2210   28.1777   21.3787 
  32.5310   11.5281   10.2148   28.1738   21.3769 
  32.5311   11.5205   10.2195   28.1798   21.3828 
  32.5187   11.5117   10.2221   28.1745   21.3802 
  32.5122   11.5013   10.2168   28.1763   21.3834 
  32.5060   11.4912   10.2256   28.1780   21.3865 
  32.4904   11.4867   10.2218   28.1664   21.3782 
  32.4871   11.4762   10.2202   28.1712   21.3838 
  32.4760   11.4689   10.2209   28.1661   21.3811 
  32.4606   11.4577   10.2222   28.1599   21.3782 
  32.4561   11.4505   10.2226   28.1611   21.3804 
  32.4569   11.4451   10.2188   28.1660   21.3851 
  32.4360   11.4368   10.2231   28.1522   21.3758 
  32.4407   11.4278   10.2184   28.1635   21.3861 
  32.4148   11.4178   10.2267   28.1462   21.3745 
  32.4260   11.4092   10.2229   28.1635   21.3894 
  32.4166   11.4014   10.2221   28.1605   21.3883 
  32.3976   11.3942   10.2208   28.1477   21.3796 
  32.3961   11.3853   10.2237   28.1530   21.3853 
  32.3975   11.3746   10.2210   28.1624   21.3944 
  32.3921   11.3695   10.2216   28.1611   21.3943 
  32.3765   11.3587   10.2210   28.1544   21.3909 
  32.3579   11.3505   10.2223   28.1427   21.3832 
  32.3627   11.3441   10.2270   28.1522   21.3917 
  32.3513   11.3341   10.2211   28.1489   21.3908 
  32.3506   11.3250   10.2266   28.1552   21.3973 
  32.3395   11.3172   10.2258   28.1503   21.3948 
  32.3353   11.3084   10.2236   28.1531   21.3984 
  32.3226   11.3003   10.2233   28.1469   21.3950 
  32.3080   11.2890   10.2213   28.1415   21.3927 
  32.3076   11.2823   10.2255   28.1462   21.3976 
  32.3001   11.2745   10.2245   28.1450   21.3979 
  32.2902   11.2583   10.2240   28.1477   21.4028 
  32.2877   11.2566   10.2240   28.1467   21.4023 
  32.2782   11.2472   10.2261   28.1446   21.4023 
  32.2670   11.2381   10.2192   28.1408   21.4008 
  32.2620   11.2303   10.2203   28.1419   21.4030 
  32.2586   11.2230   10.2228   28.1441   21.4060 
  32.2490   11.2144   10.2231   28.1415   21.4054 
  32.2422   11.2046   10.2250   28.1424   21.4078 
  32.2282   11.1953   10.2263   28.1360   21.4044 
  32.2254   11.1891   10.2215   28.1381   21.4070 
  32.2057   11.1765   10.2230   28.1285   21.4018 
  32.2104   11.1696   10.2233   28.1384   21.4105 
  32.2017   11.1596   10.2259   28.1376   21.4116 
  32.1977   11.1516   10.2280   28.1398   21.4147 
  32.1875   11.1389   10.2276   28.1396   21.4167 
  32.1744   11.1319   10.2286   28.1324   21.4123 
  32.1485   11.1234   10.2243   28.1138   21.3993 
  32.1646   11.1172   10.2231   28.1341   21.4161 
  32.1560   11.1046   10.2270   28.1354   21.4192 
  32.1510   11.0989   10.2274   28.1349   21.4198 
  32.1434   11.0900   10.2262   28.1344   21.4208 
  32.1274   11.0792   10.2276   28.1271   21.4170 
  32.1268   11.0716   10.2268   28.1324   21.4224 
  32.1121   11.0641   10.2229   28.1238   21.4170 
  32.1147   11.0572   10.2278   28.1317   21.4243 
  32.1037   11.0467   10.2229   28.1290   21.4239 
  32.0952   11.0380   10.2216   28.1274   21.4242 
  32.0866   11.0282   10.2264   28.1266   21.4251 
  32.0835   11.0191   10.2226   28.1305   21.4297 
  32.0747   11.0105   10.2213   28.1286   21.4297 
  32.0609   10.9900   10.2257   28.1309   21.4349 
  32.0589   10.9935   10.2228   28.1262   21.4306 
  32.0447   10.9847   10.2235   28.1192   21.4266 
  32.0427   10.9758   10.2345   28.1240   21.4319 
  32.0371   10.9657   10.2279   28.1263   21.4354 
  32.0114   10.9595   10.2259   28.1061   21.4207 
  32.0226   10.9481   10.2258   28.1257   21.4379 
  32.0164   10.9329   10.2287   28.1314   21.4448 
  32.0057   10.9304   10.2295   28.1229   21.4386 
  32.0034   10.9208   10.2281   28.1280   21.4441 
  31.9931   10.9119   10.2275   28.1248   21.4431 
  31.9900   10.9061   10.2260   28.1263   21.4452 
  31.9761   10.8932   10.2217   28.1226   21.4445 
  31.9691   10.8878   10.2229   28.1200   21.4434 
  31.9668   10.8775   10.2269   28.1255   21.4494 
  31.9434   10.8684   10.2241   28.1098   21.4387 
  31.9452   10.8598   10.2242   28.1181   21.4466 
  31.9462   10.8532   10.2235   28.1242   21.4524 
  31.9214   10.8435   10.2246   28.1075   21.4410 
  31.9338   10.8327   10.2210   28.1278   21.4585 
  31.9221   10.8247   10.2239   28.1226   21.4558 
  31.9191   10.8162   10.2261   28.1262   21.4600 
  31.8921   10.8072   10.2251   28.1067   21.4464 
  31.8940   10.7934   10.2244   28.1191   21.4583 
  31.8895   10.7898   10.2244   28.1175   21.4576 
  31.8911   10.7812   10.2257   28.1257   21.4655 
  31.8864   10.7710   10.2230   28.1289   21.4696 
  31.8637   10.7613   10.2254   28.1143   21.4598 
  31.8730   10.7570   10.2234   28.1266   21.4701 
  31.8611   10.7472   10.2248   28.1225   21.4686 
  31.8565   10.7369   10.2251   28.1260   21.4729 
  31.8443   10.7265   10.2200   28.1221   21.4716 
  31.8474   10.7232   10.2218   28.1276   21.4765 
  31.8355   10.7087   10.2165   28.1272   21.4784 
  31.8380   10.7019   10.2219   28.1348   21.4855 
  31.8288   10.6932   10.2248   28.1325   21.4851 
  31.8208   10.6837   10.2209   28.1320   21.4863 
  31.8062   10.6750   10.2249   28.1244   21.4818 
  31.8004   10.6638   10.2197   28.1273   21.4859 
  31.7991   10.6564   10.2218   28.1317   21.4905 
  31.7936   10.6482   10.2205   28.1327   21.4927 
  31.7766   10.6400   10.2240   28.1223   21.4859 
  31.7802   10.6326   10.2205   28.1315   21.4943 
  31.7834   10.6196   10.2214   28.1447   21.5067 
  31.7630   10.6130   10.2248   28.1298   21.4962 
  31.7665   10.6019   10.2182   28.1419   21.5073 
  31.7614   10.5959   10.2204   28.1414   21.5080 
  31.7531   10.5867   10.2208   28.1404   21.5086 
  31.7363   10.5789   10.2243   28.1299   21.5018 
  31.7394   10.5691   10.2225   28.1406   21.5116 
  31.7309   10.5634   10.2233   28.1366   21.5095 
  31.7262   10.5503   10.2233   28.1420   21.5158 
  31.7207   10.5426   10.2205   28.1426   21.5175 
  31.7100   10.5305   10.2259   28.1415   21.5187 
  31.7138   10.5258   10.2243   28.1488   21.5251 
  31.7010   10.5168   10.2169   28.1432   21.5222 
  31.6964   10.5104   10.2222   28.1436   21.5235 
  31.6784   10.4975   10.2175   28.1359   21.5196 
  31.6797   10.4848   10.2192   28.1470   21.5302 
  31.6740   10.4819   10.2239   28.1437   21.5282 
  31.6517   10.4759   10.2259   28.1263   21.5157 
  31.6548   10.4633   10.2219   28.1391   21.5276 
  31.6492   10.4569   10.2234   28.1386   21.5282 
  31.6404   10.4477   10.2192   28.1369   21.5284 
  31.6360   10.4388   10.2223   28.1395   21.5319 
  31.6387   10.4334   10.2220   28.1464   21.5381 
  31.6356   10.4290   10.2255   28.1466   21.5390 
  31.6251   10.4164   10.2229   28.1460   21.5406 
  31.6193   10.4030   10.2259   28.1507   21.5463 
  31.6121   10.3995   10.2245   28.1464   21.5435 
  31.6024   10.3934   10.2254   28.1415   21.5408 
  31.5986   10.3868   10.2279   28.1429   21.5429 
  31.5837   10.3773   10.2238   28.1356   21.5387 
  31.5884   10.3681   10.2210   28.1473   21.5493 
  31.5819   10.3604   10.2264   28.1469   21.5503 
  31.5801   10.3552   10.2221   28.1491   21.5528 
  31.5718   10.3417   10.2267   28.1514   21.5567 
  31.5715   10.3381   10.2190   28.1539   21.5592 
  31.5555   10.3297   10.2188   28.1446   21.5533 
  31.5567   10.3180   10.2221   28.1548   21.5631 
  31.5537   10.3156   10.2232   28.1537   21.5627 
  31.5384   10.2955   10.2231   28.1542   21.5663 
  31.5274   10.2981   10.2224   28.1413   21.5558 
  31.5342   10.2894   10.2227   28.1547   21.5676 
  31.5224   10.2824   10.2242   28.1486   21.5640 
  31.5225   10.2762   10.2240   28.1534   21.5687 
  31.5185   10.2679   10.2288   28.1559   21.5720 
  31.5097   10.2566   10.2230   28.1560   21.5738 
  31.4932   10.2513   10.2223   28.1437   21.5652 
  31.4929   10.2460   10.2250   28.1476   21.5690 
  31.4927   10.2365   10.2214   28.1548   21.5761 
  31.4928   10.2290   10.2247   28.1607   21.5819 
  31.4849   10.2224   10.2233   28.1579   21.5808 
  31.4776   10.2103   10.2225   28.1602   21.5845 
  31.4750   10.2077   10.2211   28.1597   21.5845 
  31.4682   10.2001   10.2196   28.1588   21.5850 
  31.4617   10.1906   10.2252   28.1597   21.5873 
  31.4581   10.1821   10.2259   28.1628   21.5910 
  31.4378   10.1760   10.2220   28.1474   21.5799 
  31.4459   10.1679   10.2249   28.1617   21.5924 
  31.4416   10.1597   10.2265   28.1638   21.5953 
  31.4334   10.1542   10.2211   28.1599   21.5931 
  31.4321   10.1464   10.2214   28.1647   21.5981 
  31.4331   10.1375   10.2233   28.1726   21.6057 
  31.4196   10.1307   10.2235   28.1645   21.6004 
  31.4187   10.1214   10.2223   28.1708   21.6068 
  31.4099   10.1138   10.2237   28.1680   21.6058 
  31.4060   10.1074   10.2221   28.1692   21.6077 
  31.4023   10.0997   10.2217   28.1714   21.6107 
  31.3791   10.0903   10.2219   28.1557   21.5999 
  31.3896   10.0833   10.2203   28.1716   21.6134 
  31.3859   10.0762   10.2207   28.1735   21.6160 
  31.3759   10.0663   10.2230   28.1712   21.6158 
  31.3769   10.0631   10.2231   28.1747   21.6190 
  31.3600   10.0459   10.2190   28.1713   21.6191 
  31.3511   10.0444   10.2234   28.1636   21.6133 
  31.3490   10.0370   10.2201   28.1673   21.6173 
  31.3527   10.0291   10.2216   28.1771   21.6262 
  31.3459   10.0210   10.2233   28.1767   21.6271 
  31.3412   10.0153   10.2233   28.1764   21.6278 
  31.3373   10.0059   10.2215   28.1799   21.6320 
  31.3281    9.9984   10.2274   28.1766   21.6306 
  31.3289    9.9905   10.2211   28.1835   21.6372 
  31.3218    9.9849   10.2210   28.1808   21.6360 
  31.3148    9.9754   10.2203   28.1813   21.6378 
  31.3090    9.9683   10.2197   28.1810   21.6388 
  31.3091    9.9612   10.2218   28.1867   21.6443 
  31.2885    9.9511   10.2229   28.1740   21.6360 
  31.2948    9.9454   10.2249   28.1848   21.6453 
  31.2883    9.9361   10.2221   28.1855   21.6473 
  31.2718    9.9291   10.2214   28.1746   21.6399 
  31.2735    9.9196   10.2214   28.1837   21.6484 
  31.2691    9.9119   10.2215   28.1853   21.6509 
  31.2698    9.9078   10.2245   28.1891   21.6545 
  31.2636    9.8987   10.2242   28.1901   21.6567 
  31.2537    9.8883   10.2226   28.1884   21.6569 
  31.2542    9.8825   10.2289   28.1934   21.6618 
  31.2524    9.8787   10.2231   28.1945   21.6632 
  31.2485    9.8682   10.2293   28.1988   21.6682 
  31.2408    9.8628   10.2237   28.1954   21.6663 
  31.2278    9.8529   10.2274   28.1902   21.6638 
  31.2214    9.8446   10.2258   28.1903   21.6653 
  31.2213    9.8354   10.2223   28.1973   21.6721 
  31.2217    9.8308   10.2231   28.2014   21.6760 
  31.2117    9.8214   10.2249   28.1988   21.6754 
  31.2078    9.8137   10.2220   28.2009   21.6782 
  31.1974    9.8056   10.2202   28.1968   21.6762 
  31.2017    9.7948   10.2253   28.2095   21.6879 
  31.1823    9.7919   10.2273   28.1925   21.6751 
  31.1858    9.7838   10.2275   28.2022   21.6839 
  31.1756    9.7768   10.2246   28.1976   21.6813 
  31.1757    9.7696   10.2272   28.2032   21.6869 
  31.1681    9.7568   10.2247   28.2056   21.6907 
  31.1690    9.7536   10.2279   28.2091   21.6939 
  31.1586    9.7449   10.2226   28.2055   21.6924 
  31.1561    9.7383   10.2237   28.2081   21.6955 
  31.1516    9.7282   10.2230   28.2116   21.6997 
  31.1372    9.7217   10.2235   28.2022   21.6934 
  31.1465    9.7163   10.2276   28.2158   21.7048 
  31.1422    9.7066   10.2260   28.2191   21.7089 
  31.1356    9.6996   10.2247   28.2179   21.7090 
  31.1224    9.6912   10.2224   28.2113   21.7052 
  31.1322    9.6851   10.2263   28.2258   21.7174 
  31.1110    9.6782   10.2239   28.2101   21.7062 
  31.1190    9.6698   10.2263   28.2247   21.7189 
  31.1063    9.6618   10.2302   28.2182   21.7151 
  31.1059    9.6503   10.2227   28.2268   21.7235 
  31.1016    9.6450   10.2280   28.2267   21.7242 
  31.0954    9.6378   10.2264   28.2261   21.7249 
  31.0954    9.6293   10.2280   28.2328   21.7314 
  31.0677    9.6220   10.2280   28.2107   21.7153 
  31.0848    9.6151   10.2250   28.2333   21.7339 
  31.0579    9.6076   10.2245   28.2121   21.7186 
  31.0645    9.5987   10.2250   28.2258   21.7306 
  31.0634    9.5937   10.2244   28.2286   21.7335 
  31.0666    9.5873   10.2266   28.2369   21.7410 
  31.0603    9.5797   10.2222   28.2365   21.7418 
  31.0466    9.5709   10.2309   28.2296   21.7379 
  31.0388    9.5621   10.2258   28.2287   21.7384 
  31.0236    9.5538   10.2223   28.2200   21.7329 
  31.0344    9.5506   10.2222   28.2334   21.7438 
  31.0320    9.5405   10.2294   28.2388   21.7496 
  31.0340    9.5329   10.2301   28.2469   21.7570 
  31.0192    9.5235   10.2275   28.2393   21.7526 
  31.0247    9.5192   10.2295   28.2483   21.7602 
  31.0175    9.5084   10.2226   28.2495   21.7628 
  31.0025    9.5012   10.2310   28.2400   21.7565 
  30.9983    9.4939   10.2269   28.2416   21.7588 
  31.0039    9.4899   10.2297   28.2504   21.7663 
  31.0007    9.4804   10.2314   28.2547   21.7711 
  30.9880    9.4716   10.2308   28.2487   21.7678 
  30.9804    9.4633   10.2302   28.2476   21.7682 
  30.9803    9.4560   10.2295   28.2533   21.7737 
  30.9777    9.4506   10.2287   28.2549   21.7758 
  30.9750    9.4320   10.2253   28.2668   21.7878 
  30.9715    9.4350   10.2246   28.2610   21.7828 
  30.9610    9.4248   10.2286   28.2584   21.7823 
  30.9620    9.4158   10.2246   28.2666   21.7901 
  30.9600    9.4144   10.2276   28.2656   21.7895 
  30.9495    9.4020   10.2302   28.2648   21.7908 
  30.9503    9.3962   10.2305   28.2702   21.7958 
  30.9430    9.3828   10.2315   28.2734   21.8004 
  30.9409    9.3806   10.2331   28.2730   21.8004 
  30.9296    9.3751   10.2289   28.2660   21.7957 
  30.9341    9.3670   10.2295   28.2769   21.8054 
  30.9270    9.3602   10.2306   28.2751   21.8050 
  30.9156    9.3513   10.2266   28.2707   21.8029 
  30.9150    9.3453   10.2273   28.2748   21.8070 
  30.9103    9.3360   10.2312   28.2773   21.8104 
  30.9048    9.3271   10.2299   28.2788   21.8129 
  30.9070    9.3228   10.2323   28.2844   21.8179 
  30.8890    9.3148   10.2305   28.2725   21.8098 
  30.8928    9.3071   10.2305   28.2825   21.8188 
  30.8914    9.2990   10.2323   28.2875   21.8239 
  30.8816    9.2921   10.2331   28.2830   21.8214 
  30.8807    9.2840   10.2305   28.2884   21.8268 
  30.8866    9.2768   10.2316   28.3001   21.8370 
  30.8750    9.2694   10.2321   28.2943   21.8336 
  30.8587    9.2610   10.2276   28.2844   21.8271 
  30.8633    9.2504   10.2303   28.2974   21.8388 
  30.8631    9.2485   10.2295   28.2988   21.8402 
  30.8483    9.2411   10.2262   28.2897   21.8342 
  30.8504    9.2311   10.2309   28.2997   21.8435 
  30.8530    9.2239   10.2272   28.3081   21.8511 
  30.8363    9.2176   10.2299   28.2960   21.8426 
  30.8401    9.2103   10.2301   28.3057   21.8512 
  30.8426    9.2040   10.2298   28.3132   21.8580 
  30.8358    9.1952   10.2336   28.3132   21.8594 
  30.8306    9.1864   10.2335   28.3150   21.8621 
  30.8274    9.1790   10.2306   28.3176   21.8652 
  30.8222    9.1742   10.2312   28.3161   21.8647 
  30.8136    9.1670   10.2287   28.3131   21.8634 
  30.8072    9.1601   10.2344   28.3121   21.8637 
  30.8029    9.1557   10.2300   28.3112   21.8636 
  30.7991    9.1489   10.2317   28.3127   21.8658 
  30.8079    9.1412   10.2234   28.3279   21.8788 
  30.8041    9.1378   10.2343   28.3267   21.8784 
  30.8030    9.1334   10.2325   28.3291   21.8808 
  30.7948    9.1274   10.2319   28.3255   21.8790 
  30.7941    9.1203   10.2292   28.3304   21.8838 
  30.7805    9.1164   10.2331   28.3196   21.8760 
  30.7899    9.1112   10.2292   28.3333   21.8874 
  30.7856    9.1084   10.2292   28.3312   21.8862 
  30.7687    9.1026   10.2337   28.3186   21.8772 
  30.7739    9.0968   10.2284   28.3285   21.8858 
  30.7825    9.0917   10.2297   28.3413   21.8965 
  30.7822    9.0879   10.2314   28.3441   21.8992 
  30.7689    9.0842   10.2360   28.3335   21.8916 
  30.7783    9.0800   10.2375   28.3464   21.9022 
  30.7711    9.0749   10.2339   28.3431   21.9004 
  30.7759    9.0710   10.2343   28.3511   21.9072 
  30.7732    9.0666   10.2309   28.3519   21.9085 
  30.7705    9.0622   10.2346   28.3526   21.9097 
  30.7702    9.0587   10.2330   28.3551   21.9121 
  30.7660    9.0549   10.2314   28.3539   21.9117 
  30.7666    9.0508   10.2356   28.3577   21.9154 
  30.7568    9.0477   10.2367   28.3502   21.9099 
  30.7615    9.0433   10.2326   28.3584   21.9170 
  30.7620    9.0409   10.2346   28.3608   21.9193 
  30.7550    9.0360   10.2370   28.3576   21.9175 
  30.7599    9.0335   10.2343   28.3646   21.9233 
  30.7554    9.0298   10.2345   28.3629   21.9225 
  30.7591    9.0256   10.2368   28.3701   21.9287 
  30.7552    9.0217   10.2352   28.3692   21.9286 
  30.7511    9.0182   10.2359   28.3679   21.9281 
  30.7453    9.0105   10.2361   28.3681   21.9294 
  30.7333    9.0068   10.2386   28.3587   21.9226 
  30.7469    9.0026   10.2329   28.3760   21.9367 
  30.7452    8.9965   10.2352   28.3791   21.9400 
  30.7363    8.9911   10.2368   28.3743   21.9371 
  30.7384    8.9880   10.2322   28.3790   21.9411 
  30.7182    8.9818   10.2359   28.3633   21.9298 
  30.7368    8.9761   10.2359   28.3869   21.9490 
  30.7241    8.9674   10.2345   28.3808   21.9455 
  30.7156    8.9652   10.2399   28.3740   21.9406 
  30.7278    8.9588   10.2358   28.3914   21.9551 
  30.7161    8.9537   10.2388   28.3836   21.9498 
  30.7100    8.9454   10.2387   28.3840   21.9513 
  30.7171    8.9414   10.2345   28.3944   21.9600 
  30.7183    8.9353   10.2366   28.4005   21.9656 
  30.7139    8.9305   10.2371   28.3999   21.9658 
  30.7112    8.9246   10.2330   28.4018   21.9682 
  30.7080    8.9176   10.2378   28.4041   21.9711 
  30.6835    8.9099   10.2411   28.3852   21.9574 
  30.6987    8.9025   10.2381   28.4067   21.9752 
  30.6966    8.8993   10.2358   28.4071   21.9760 
  30.6948    8.8920   10.2340   28.4112   21.9802 
  30.6847    8.8850   10.2379   28.4064   21.9775 
  30.6828    8.8796   10.2377   28.4087   21.9802 
  30.6800    8.8713   10.2387   28.4126   21.9843 
  30.6689    8.8655   10.2381   28.4058   21.9799 
  30.6775    8.8609   10.2353   28.4182   21.9902 
  30.6732    8.8549   10.2342   28.4187   21.9915 
  30.6684    8.8463   10.2390   28.4206   21.9942 
  30.6629    8.8414   10.2372   28.4189   21.9936 
  30.6570    8.8344   10.2376   28.4185   21.9943 
  30.6463    8.8262   10.2383   28.4142   21.9921 
  30.6601    8.8227   10.2406   28.4311   22.0058 
  30.6497    8.8150   10.2392   28.4265   22.0034 
  30.6390    8.8070   10.2351   28.4219   22.0009 
  30.6376    8.7980   10.2419   28.4277   22.0067 
  30.6440    8.7936   10.2405   28.4379   22.0153 
  30.6360    8.7831   10.2414   28.4380   22.0169 
  30.6198    8.7780   10.2393   28.4255   22.0079 
  30.6318    8.7727   10.2417   28.4420   22.0216 
  30.6267    8.7628   10.2405   28.4447   22.0251 
  30.6261    8.7580   10.2391   28.4481   22.0284 
  30.6184    8.7510   10.2412   28.4458   22.0276 
  30.6185    8.7456   10.2396   28.4502   22.0318 
  30.6115    8.7378   10.2393   28.4492   22.0322 
  30.6042    8.7294   10.2393   28.4485   22.0329 
  30.6063    8.7251   10.2416   28.4541   22.0378 
  30.5970    8.7163   10.2402   28.4517   22.0372 
  30.5995    8.7091   10.2382   28.4600   22.0447 
  30.5920    8.7020   10.2410   28.4580   22.0442 
  30.5791    8.6945   10.2409   28.4507   22.0396 
  30.5908    8.6880   10.2434   28.4680   22.0540 
  30.5793    8.6797   10.2355   28.4629   22.0512 
  30.5825    8.6730   10.2409   28.4716   22.0589 
  30.5644    8.6646   10.2381   28.4597   22.0508 
  30.5735    8.6591   10.2397   28.4735   22.0624 
  30.5632    8.6539   10.2424   28.4670   22.0581 
  30.5660    8.6443   10.2411   28.4776   22.0677 
  30.5609    8.6395   10.2394   28.4762   22.0674 
  30.5510    8.6293   10.2393   28.4742   22.0672 
  30.5519    8.6219   10.2367   28.4811   22.0736 
  30.5506    8.6171   10.2412   28.4837   22.0763 
  30.5460    8.6097   10.2407   28.4849   22.0783 
  30.5434    8.5984   10.2424   28.4913   22.0850 
  30.5304    8.5936   10.2437   28.4817   22.0782 
  30.5374    8.5859   10.2412   28.4952   22.0898 
  30.5268    8.5794   10.2422   28.4895   22.0862 
  30.5206    8.5747   10.2399   28.4869   22.0849 
  30.5224    8.5658   10.2416   28.4960   22.0932 
  30.5167    8.5563   10.2407   28.4977   22.0959 
  30.5179    8.5529   10.2438   28.5018   22.0996 
  30.5082    8.5425   10.2420   28.5001   22.0998 
  30.5094    8.5377   10.2418   28.5051   22.1044 
  30.5054    8.5314   10.2408   28.5061   22.1060 
  30.4965    8.5221   10.2367   28.5044   22.1060 
  30.4826    8.5140   10.2421   28.4966   22.1011 
  30.4826    8.5038   10.2386   28.5048   22.1089 
  30.4854    8.4993   10.2432   28.5114   22.1147 
  30.4853    8.4920   10.2384   28.5172   22.1202 
  30.4792    8.4832   10.2404   28.5181   22.1222 
  30.4757    8.4756   10.2402   28.5205   22.1251 
  30.4687    8.4648   10.2413   28.5221   22.1279 
  30.4667    8.4605   10.2399   28.5234   22.1295 
  30.4507    8.4532   10.2422   28.5128   22.1223 
  30.4637    8.4472   10.2386   28.5311   22.1374 
  30.4541    8.4395   10.2383   28.5274   22.1356 
  30.4513    8.4318   10.2417   28.5307   22.1393 
  30.4410    8.4247   10.2384   28.5258   22.1364 
  30.4414    8.4115   10.2438   28.5368   22.1469 
  30.4404    8.4106   10.2406   28.5366   22.1468 
  30.4323    8.4017   10.2379   28.5353   22.1470 
  30.4272    8.3955   10.2409   28.5351   22.1477 
  30.4310    8.3857   10.2373   28.5470   22.1584 
  30.4291    8.3803   10.2371   28.5493   22.1610 
  30.4229    8.3730   10.2382   28.5489   22.1617 
  30.4158    8.3644   10.2392   28.5485   22.1626 
  30.4136    8.3560   10.2390   28.5530   22.1673 
  30.3999    8.3484   10.2385   28.5449   22.1620 
  30.3885    8.3426   10.2388   28.5378   22.1573 
  30.3976    8.3320   10.2415   28.5559   22.1729 
  30.3969    8.3258   10.2351   28.5601   22.1770 
  30.3883    8.3195   10.2380   28.5564   22.1750 
  30.3842    8.3121   10.2419   28.5581   22.1774 
  30.3806    8.3055   10.2384   28.5597   22.1795 
  30.3813    8.2976   10.2406   28.5669   22.1863 
  30.3717    8.2891   10.2372   28.5638   22.1850 
  30.3704    8.2791   10.2364   28.5706   22.1917 
  30.3587    8.2748   10.2379   28.5618   22.1854 
  30.3588    8.2666   10.2375   28.5687   22.1920 
  30.3515    8.2606   10.2403   28.5660   22.1907 
  30.3468    8.2492   10.2375   28.5704   22.1957 
  30.3486    8.2444   10.2411   28.5761   22.2008 
  30.3397    8.2362   10.2372   28.5735   22.1999 
  30.3332    8.2304   10.2382   28.5714   22.1990 
  30.3369    8.2211   10.2391   28.5829   22.2094 
  30.3299    8.2144   10.2357   28.5811   22.2088 
  30.3275    8.2069   10.2365   28.5847   22.2127 
  30.3226    8.1985   10.2372   28.5864   22.2152 
  30.3216    8.1897   10.2338   28.5924   22.2211 
  30.3128    8.1828   10.2372   28.5889   22.2193 
  30.3078    8.1752   10.2369   28.5899   22.2211 
  30.3104    8.1684   10.2408   28.5982   22.2286 
  30.3058    8.1605   10.2373   28.5998   22.2309 
  30.2968    8.1545   10.2350   28.5953   22.2282 
  30.2963    8.1481   10.2377   28.6000   22.2327 
  30.2856    8.1387   10.2350   28.5965   22.2313 
  30.2881    8.1313   10.2402   28.6052   22.2391 
  30.2814    8.1236   10.2383   28.6044   22.2395 
  30.2792    8.1162   10.2361   28.6082   22.2435 
  30.2775    8.1102   10.2404   28.6112   22.2467 
  30.2635    8.1023   10.2316   28.6032   22.2414 
  30.2653    8.0932   10.2361   28.6124   22.2499 
  30.2653    8.0877   10.2343   28.6168   22.2542 
  30.2619    8.0793   10.2360   28.6202   22.2579 
  30.2515    8.0699   10.2351   28.6170   22.2567 
  30.2461    8.0632   10.2321   28.6169   22.2575 
  30.2449    8.0585   10.2333   28.6195   22.2602 
  30.2348    8.0474   10.2376   28.6180   22.2605 
  30.2288    8.0438   10.2356   28.6145   22.2584 
  30.2268    8.0339   10.2340   28.6205   22.2644 
  30.2189    8.0245   10.2343   28.6200   22.2652 
  30.2228    8.0195   10.2354   28.6281   22.2723 
  30.2210    8.0068   10.2347   28.6367   22.2807 
  30.2177    8.0045   10.2341   28.6351   22.2798 
  30.2062    7.9975   10.2345   28.6287   22.2757 
  30.2065    7.9895   10.2335   28.6356   22.2822 
  30.1972    7.9799   10.2335   28.6338   22.2821 
  30.1993    7.9745   10.2340   28.6404   22.2880 
  30.1933    7.9645   10.2337   28.6422   22.2908 
  30.1834    7.9610   10.2352   28.6348   22.2854 
  30.1870    7.9511   10.2353   28.6466   22.2960 
  30.1738    7.9420   10.2383   28.6403   22.2923 
  30.1740    7.9374   10.2332   28.6442   22.2960 
  30.1738    7.9280   10.2350   28.6517   22.3031 
  30.1653    7.9067   10.2365   28.6603   22.3127 
  30.1595    7.9116   10.2327   28.6502   22.3041 
  30.1599    7.9070   10.2382   28.6543   22.3079 
  30.1547    7.8991   10.2368   28.6554   22.3099 
  30.1518    7.8922   10.2368   28.6580   22.3128 
  30.1453    7.8847   10.2371   28.6573   22.3133 
  30.1419    7.8769   10.2356   28.6601   22.3165 
  30.1390    7.8718   10.2387   28.6612   22.3181 
  30.1340    7.8651   10.2393   28.6615   22.3193 
  30.1350    7.8593   10.2322   28.6672   22.3245 
  30.1216    7.8495   10.2395   28.6613   22.3212 
  30.1226    7.8448   10.2352   28.6662   22.3256 
  30.1132    7.8390   10.2330   28.6611   22.3224 
  30.1156    7.8305   10.2363   28.6705   22.3310 
  30.1107    7.8211   10.2386   28.6731   22.3343 
  30.1044    7.8155   10.2396   28.6711   22.3334 
  30.0947    7.8084   10.2406   28.6668   22.3309 
  30.0927    7.7987   10.2360   28.6727   22.3369 
  30.0894    7.7969   10.2380   28.6706   22.3355 
  30.0911    7.7899   10.2387   28.6782   22.3423 
  30.0836    7.7804   10.2343   28.6781   22.3435 
  30.0810    7.7738   10.2368   28.6807   22.3464 
  30.0693    7.7685   10.2398   28.6728   22.3410 
  30.0689    7.7581   10.2371   28.6809   22.3487 
  30.0660    7.7512   10.2371   28.6835   22.3516 
  30.0599    7.7439   10.2351   28.6831   22.3523 
  30.0485    7.7367   10.2387   28.6770   22.3485 
  30.0543    7.7307   10.2357   28.6880   22.3579 
  30.0457    7.7160   10.2398   28.6911   22.3623 
  30.0469    7.7164   10.2368   28.6921   22.3630 
  30.0319    7.7064   10.2376   28.6845   22.3584 
  30.0332    7.6895   10.2420   28.6997   22.3725 
  30.0315    7.6954   10.2365   28.6931   22.3666 
  30.0117    7.6877   10.2351   28.6784   22.3561 
  30.0245    7.6788   10.2392   28.6993   22.3736 
  30.0183    7.6717   10.2353   28.6987   22.3741 
  30.0103    7.6640   10.2359   28.6965   22.3734 
  30.0084    7.6581   10.2345   28.6994   22.3764 
  30.0047    7.6510   10.2345   28.7014   22.3789 
  29.9942    7.6399   10.2349   28.6995   22.3789 
  29.9871    7.6370   10.2354   28.6944   22.3753 
  29.9883    7.6300   10.2402   28.7014   22.3817 
  29.9829    7.6215   10.2359   28.7026   22.3838 
  29.9781    7.6169   10.2382   28.7014   22.3834 
  29.9680    7.6098   10.2386   28.6965   22.3805 
  29.9703    7.6010   10.2358   28.7062   22.3893 
  29.9653    7.5954   10.2389   28.7055   22.3895 
  29.9554    7.5821   10.2403   28.7061   22.3916 
  29.9526    7.5794   10.2421   28.7054   22.3914 
  29.9505    7.5720   10.2369   28.7093   22.3955 
  29.9459    7.5664   10.2380   28.7090   22.3960 
  29.9301    7.5567   10.2367   28.7003   22.3904 
  29.9218    7.5492   10.2358   28.6977   22.3893 
  29.9328    7.5432   10.2338   28.7143   22.4031 
  29.9141    7.5357   10.2347   28.7007   22.3934 
  29.9225    7.5275   10.2364   28.7164   22.4068 
  29.9186    7.5230   10.2356   28.7160   22.4071 
  29.9146    7.5156   10.2358   28.7178   22.4095 
  29.9073    7.5069   10.2356   28.7172   22.4102 
  29.9028    7.4997   10.2338   28.7185   22.4121 
  29.8998    7.4941   10.2378   28.7199   22.4139 
  29.8938    7.4862   10.2362   28.7201   22.4151 
  29.8869    7.4823   10.2336   28.7160   22.4124 
  29.8884    7.4764   10.2356   28.7224   22.4182 
  29.8791    7.4687   10.2379   28.7189   22.4164 
  29.8776    7.4610   10.2397   28.7237   22.4212 
  29.8752    7.4549   10.2336   28.7263   22.4240 
  29.8683    7.4468   10.2332   28.7256   22.4245 
  29.8632    7.4428   10.2345   28.7235   22.4234 
  29.8592    7.4354   10.2353   28.7253   22.4258 
  29.8561    7.4282   10.2347   28.7281   22.4289 
  29.8407    7.4185   10.2386   28.7198   22.4236 
  29.8486    7.4141   10.2317   28.7317   22.4335 
  29.8410    7.4065   10.2348   28.7300   22.4332 
  29.8423    7.4000   10.2316   28.7367   22.4393 
  29.8326    7.3896   10.2366   28.7350   22.4393 
  29.8241    7.3854   10.2332   28.7295   22.4355 
  29.8291    7.3801   10.2336   28.7392   22.4438 
  29.8236    7.3739   10.2347   28.7385   22.4441 
  29.8096    7.3654   10.2370   28.7307   22.4390 
  29.8069    7.3592   10.2381   28.7329   22.4416 
  29.8048    7.3525   10.2304   28.7362   22.4450 
  29.8048    7.3473   10.2316   28.7405   22.4490 
  29.7980    7.3393   10.2316   28.7399   22.4495 
  29.7888    7.3308   10.2343   28.7372   22.4486 
  29.7891    7.3251   10.2322   28.7423   22.4533 
  29.7832    7.3154   10.2320   28.7440   22.4558 
  29.7792    7.3104   10.2356   28.7439   22.4564 
  29.7722    7.3008   10.2353   28.7444   22.4580 
  29.7698    7.2954   10.2332   28.7463   22.4602 
  29.7670    7.2888   10.2300   28.7488   22.4630 
  29.7599    7.2791   10.2327   28.7494   22.4647 
  29.7557    7.2713   10.2316   28.7513   22.4672 
  29.7419    7.2678   10.2322   28.7394   22.4583 
  29.7354    7.2613   10.2334   28.7380   22.4580 
  29.7344    7.2538   10.2348   28.7432   22.4630 
  29.7303    7.2462   10.2376   28.7451   22.4655 
  29.7311    7.2393   10.2333   28.7517   22.4716 
  29.7242    7.2320   10.2335   28.7504   22.4714 
  29.7252    7.2255   10.2315   28.7568   22.4774 
  29.7172    7.2122   10.2282   28.7594   22.4810 
  29.7043    7.2127   10.2313   28.7452   22.4698 
  29.7122    7.2060   10.2322   28.7592   22.4816 
  29.7034    7.1987   10.2312   28.7558   22.4799 
  29.7020    7.1901   10.2327   28.7615   22.4855 
  29.6938    7.1863   10.2294   28.7559   22.4815 
  29.6890    7.1725   10.2317   28.7622   22.4883 
  29.6905    7.1722   10.2357   28.7641   22.4898 
  29.6838    7.1661   10.2297   28.7620   22.4889 
  29.6763    7.1605   10.2313   28.7586   22.4870 
  29.6775    7.1525   10.2322   28.7666   22.4942 
  29.6705    7.1465   10.2340   28.7642   22.4931 
  29.6666    7.1370   10.2326   28.7678   22.4972 
  29.6638    7.1347   10.2361   28.7668   22.4967 
  29.6482    7.1263   10.2342   28.7571   22.4901 
  29.6536    7.1226   10.2319   28.7660   22.4975 
  29.6483    7.1124   10.2309   28.7687   22.5009 
  29.6456    7.1079   10.2329   28.7696   22.5022 
  29.6412    7.1005   10.2315   28.7711   22.5043 
  29.6391    7.0923   10.2314   28.7757   22.5089 
  29.6335    7.0864   10.2341   28.7746   22.5089 
  29.6262    7.0798   10.2284   28.7723   22.5078 
  29.6154    7.0754   10.2310   28.7643   22.5021 
  29.6187    7.0648   10.2322   28.7768   22.5132 
  29.6139    7.0594   10.2281   28.7762   22.5134 
  29.6100    7.0528   10.2311   28.7775   22.5153 
  29.5987    7.0468   10.2277   28.7703   22.5104 
  29.6010    7.0404   10.2246   28.7782   22.5174 
  29.5895    7.0323   10.2302   28.7726   22.5140 
  29.5925    7.0261   10.2270   28.7810   22.5213 
  29.5829    7.0184   10.2306   28.7771   22.5193 
  29.5843    7.0121   10.2294   28.7839   22.5254 
  29.5759    7.0044   10.2278   28.7813   22.5243 
  29.5708    7.0001   10.2265   28.7794   22.5233 
  29.5566    6.9886   10.2297   28.7737   22.5203 
  29.5681    6.9856   10.2290   28.7886   22.5324 
  29.5498    6.9774   10.2250   28.7758   22.5233 
  29.5518    6.9733   10.2349   28.7813   22.5282 
  29.5501    6.9640   10.2272   28.7873   22.5340 
  29.5432    6.9568   10.2244   28.7859   22.5338 
  29.5438    6.9516   10.2265   28.7909   22.5384 
  29.5386    6.9452   10.2301   28.7906   22.5390 
  29.5300    6.9384   10.2276   28.7871   22.5370 
  29.5285    6.9300   10.2278   28.7925   22.5423 
  29.5180    6.9240   10.2248   28.7863   22.5381 
  29.5137    6.9183   10.2248   28.7864   22.5389 
  29.5152    6.9082   10.2276   28.7964   22.5481 
  29.5086    6.9038   10.2310   28.7930   22.5459 
  29.4998    6.8960   10.2303   28.7901   22.5446 
  29.5017    6.8889   10.2276   28.7981   22.5517 
  29.4979    6.8831   10.2274   28.7988   22.5530 
  29.4914    6.8758   10.2270   28.7979   22.5533 
  29.4828    6.8718   10.2267   28.7920   22.5491 
  29.4772    6.8635   10.2273   28.7929   22.5508 
  29.4742    6.8583   10.2243   28.7941   22.5524 
  29.4739    6.8468   10.2254   28.8034   22.5611 
  29.4701    6.8443   10.2322   28.8014   22.5598 
  29.4632    6.8386   10.2263   28.7987   22.5584 
  29.4581    6.8341   10.2231   28.7970   22.5576 
  29.4616    6.8268   10.2288   28.8069   22.5663 
  29.4568    6.8208   10.2317   28.8068   22.5670 
  29.4461    6.8151   10.2275   28.8000   22.5623 
  29.4481    6.8084   10.2258   28.8078   22.5692 
  29.4439    6.8013   10.2266   28.8092   22.5712 
  29.4374    6.7937   10.2259   28.8085   22.5716 
  29.4350    6.7877   10.2272   28.8109   22.5743 
  29.4329    6.7825   10.2267   28.8130   22.5765 
  29.4239    6.7754   10.2266   28.8093   22.5745 
  29.4096    6.7677   10.2260   28.8003   22.5683 
  29.4116    6.7600   10.2270   28.8089   22.5760 
  29.4146    6.7563   10.2270   28.8152   22.5814 
  29.4017    6.7496   10.2274   28.8070   22.5758 
  29.4055    6.7435   10.2238   28.8162   22.5837 
  29.4035    6.7387   10.2279   28.8180   22.5858 
  29.3947    6.7335   10.2279   28.8129   22.5824 
  29.3969    6.7282   10.2259   28.8198   22.5884 
  29.3949    6.7245   10.2268   28.8207   22.5896 
  29.3893    6.7190   10.2268   28.8194   22.5892 
  29.3861    6.7133   10.2304   28.8206   22.5909 
  29.3812    6.7097   10.2250   28.8183   22.5895 
  29.3816    6.7057   10.2272   28.8221   22.5930 
  29.3776    6.7003   10.2223   28.8223   22.5938 
  29.3762    6.6973   10.2270   28.8233   22.5950 
  29.3766    6.6934   10.2238   28.8270   22.5983 
  29.3708    6.6843   10.2246   28.8284   22.6005 
  29.3683    6.6863   10.2270   28.8240   22.5968 
  29.3696    6.6825   10.2250   28.8287   22.6010 
  29.3598    6.6765   10.2234   28.8231   22.5973 
  29.3644    6.6746   10.2278   28.8296   22.6026 
